Date:	2/23/2011		Time:	2:28 AM		Version no:	0.00		Project name:	55		Sample name:	222		Section name:	section		Position	0.000000	mm	E0	0.000000	keV	E1	1.000000	keV/channel	sample surface	2.000000	cm	Tube anode:	Mo		Tube voltage:	30	kV	Tube current:	50	mA	gain	0		std. database			resultfile	result		matrix element	11		sample thickness	1.000000		air passage	0.560000	cm	comments	not in position		peaking_time	3.000000	m-sec	trigger_threshold	1229.166667	V	mca_bin_width	22.090000	no:	number_mca_channels	1024.000000	no:	gap_time	0.400000	m-sec	trigger_peaking_time	0.150000	m-sec	GAINDAC	9455		HIGHGAIN	1		TAURC	0		RCTAU	53		RCTAUFRAC	32768		livetime	9.671074	seconds	runtime	10.000502	seconds	input_count_rate	42.778908	cps	output_count_rate	28.858952	cps	triggers	413718	seconds	events_in_run	288604	seconds	channel	content		1.000	0.000
2.000	0.000
3.000	0.000
4.000	0.000
5.000	0.000
6.000	0.000
7.000	0.000
8.000	0.000
9.000	0.000
10.000	0.000
11.000	0.000
12.000	0.000
13.000	0.000
14.000	0.000
15.000	0.000
16.000	0.000
17.000	0.000
18.000	0.000
19.000	0.000
20.000	0.000
21.000	0.000
22.000	0.000
23.000	0.000
24.000	0.000
25.000	0.000
26.000	0.000
27.000	0.000
28.000	0.000
29.000	0.000
30.000	0.000
31.000	620.000
32.000	770.000
33.000	1016.000
34.000	1243.000
35.000	1484.000
36.000	1895.000
37.000	2308.000
38.000	2954.000
39.000	3473.000
40.000	4190.000
41.000	4638.000
42.000	5505.000
43.000	6102.000
44.000	7153.000
45.000	7932.000
46.000	8776.000
47.000	9476.000
48.000	10373.000
49.000	11260.000
50.000	11839.000
51.000	12484.000
52.000	13071.000
53.000	13509.000
54.000	14169.000
55.000	14400.000
56.000	14946.000
57.000	14833.000
58.000	15179.000
59.000	15348.000
60.000	15229.000
61.000	15384.000
62.000	15581.000
63.000	15586.000
64.000	15533.000
65.000	15613.000
66.000	15706.000
67.000	15922.000
68.000	15619.000
69.000	15536.000
70.000	15274.000
71.000	15051.000
72.000	14879.000
73.000	14828.000
74.000	14537.000
75.000	14274.000
76.000	14646.000
77.000	14658.000
78.000	15151.000
79.000	15177.000
80.000	15597.000
81.000	16133.000
82.000	16648.000
83.000	16512.000
84.000	16000.000
85.000	15742.000
86.000	15189.000
87.000	14924.000
88.000	14823.000
89.000	15047.000
90.000	16022.000
91.000	18870.000
92.000	23974.000
93.000	31562.000
94.000	40411.000
95.000	46841.000
96.000	49579.000
97.000	46942.000
98.000	40224.000
99.000	32594.000
100.000	26676.000
101.000	22692.000
102.000	20602.000
103.000	20532.000
104.000	21243.000
105.000	22992.000
106.000	24514.000
107.000	25948.000
108.000	25594.000
109.000	23876.000
110.000	21194.000
111.000	19089.000
112.000	17192.000
113.000	15776.000
114.000	15077.000
115.000	14628.000
116.000	14749.000
117.000	14707.000
118.000	14937.000
119.000	14990.000
120.000	15664.000
121.000	16804.000
122.000	18675.000
123.000	21691.000
124.000	24726.000
125.000	28064.000
126.000	29786.000
127.000	30236.000
128.000	28342.000
129.000	26037.000
130.000	22984.000
131.000	20787.000
132.000	18900.000
133.000	17812.000
134.000	16755.000
135.000	16056.000
136.000	15435.000
137.000	14627.000
138.000	14295.000
139.000	13651.000
140.000	13474.000
141.000	13365.000
142.000	13777.000
143.000	14251.000
144.000	14165.000
145.000	14344.000
146.000	14364.000
147.000	14411.000
148.000	14953.000
149.000	15847.000
150.000	16909.000
151.000	17797.000
152.000	18155.000
153.000	17978.000
154.000	17096.000
155.000	16870.000
156.000	17987.000
157.000	21005.000
158.000	27083.000
159.000	36104.000
160.000	47061.000
161.000	56909.000
162.000	63482.000
163.000	63516.000
164.000	57607.000
165.000	47424.000
166.000	36069.000
167.000	27004.000
168.000	19919.000
169.000	16533.000
170.000	15153.000
171.000	15358.000
172.000	16884.000
173.000	19029.000
174.000	22008.000
175.000	27339.000
176.000	35504.000
177.000	48656.000
178.000	68183.000
179.000	92917.000
180.000	119013.000
181.000	139314.000
182.000	146713.000
183.000	138598.000
184.000	118229.000
185.000	91654.000
186.000	64596.000
187.000	45041.000
188.000	31901.000
189.000	25494.000
190.000	23386.000
191.000	24698.000
192.000	29773.000
193.000	39565.000
194.000	57718.000
195.000	90283.000
196.000	150856.000
197.000	253337.000
198.000	407547.000
199.000	615041.000
200.000	850271.000
201.000	1066056.000
202.000	1201901.000
203.000	1208267.000
204.000	1092830.000
205.000	883863.000
206.000	642511.000
207.000	419695.000
208.000	251371.000
209.000	139422.000
210.000	76333.000
211.000	45242.000
212.000	34712.000
213.000	35120.000
214.000	46399.000
215.000	65297.000
216.000	94448.000
217.000	128811.000
218.000	165240.000
219.000	194565.000
220.000	208086.000
221.000	202507.000
222.000	178694.000
223.000	144095.000
224.000	107017.000
225.000	74003.000
226.000	49278.000
227.000	32992.000
228.000	23776.000
229.000	18719.000
230.000	16300.000
231.000	15214.000
232.000	15057.000
233.000	15901.000
234.000	16463.000
235.000	17716.000
236.000	19916.000
237.000	24089.000
238.000	32301.000
239.000	49128.000
240.000	80920.000
241.000	136988.000
242.000	221883.000
243.000	340823.000
244.000	486395.000
245.000	631203.000
246.000	747834.000
247.000	806637.000
248.000	788797.000
249.000	704515.000
250.000	576597.000
251.000	443550.000
252.000	324866.000
253.000	240356.000
254.000	183761.000
255.000	148123.000
256.000	123570.000
257.000	102454.000
258.000	83341.000
259.000	66054.000
260.000	53683.000
261.000	46342.000
262.000	44470.000
263.000	47738.000
264.000	57811.000
265.000	74317.000
266.000	97379.000
267.000	124919.000
268.000	153180.000
269.000	177244.000
270.000	190393.000
271.000	190480.000
272.000	176397.000
273.000	151831.000
274.000	122389.000
275.000	93345.000
276.000	69497.000
277.000	51943.000
278.000	41093.000
279.000	35436.000
280.000	32988.000
281.000	32372.000
282.000	32782.000
283.000	33950.000
284.000	36065.000
285.000	38143.000
286.000	40877.000
287.000	43791.000
288.000	46456.000
289.000	49510.000
290.000	51795.000
291.000	54195.000
292.000	56228.000
293.000	59303.000
294.000	60556.000
295.000	62932.000
296.000	63362.000
297.000	62691.000
298.000	61497.000
299.000	58496.000
300.000	55575.000
301.000	51984.000
302.000	49937.000
303.000	47489.000
304.000	46051.000
305.000	44890.000
306.000	44424.000
307.000	44017.000
308.000	43253.000
309.000	43644.000
310.000	43613.000
311.000	44831.000
312.000	46382.000
313.000	49598.000
314.000	55638.000
315.000	65336.000
316.000	82627.000
317.000	107445.000
318.000	141956.000
319.000	182792.000
320.000	227658.000
321.000	267400.000
322.000	296153.000
323.000	305420.000
324.000	294543.000
325.000	265309.000
326.000	227748.000
327.000	187216.000
328.000	151848.000
329.000	124889.000
330.000	108054.000
331.000	100793.000
332.000	100078.000
333.000	104183.000
334.000	112687.000
335.000	124491.000
336.000	141323.000
337.000	169919.000
338.000	222389.000
339.000	326478.000
340.000	535731.000
341.000	938935.000
342.000	1679599.000
343.000	2939046.000
344.000	4907155.000
345.000	7701624.000
346.000	11269360.000
347.000	15312378.000
348.000	19241464.000
349.000	22364168.000
350.000	23994396.000
351.000	23755180.000
352.000	21718462.000
353.000	18334188.000
354.000	14299198.000
355.000	10333690.000
356.000	6918212.000
357.000	4321448.000
358.000	2531986.000
359.000	1413960.000
360.000	771394.000
361.000	430776.000
362.000	262044.000
363.000	185561.000
364.000	152742.000
365.000	140436.000
366.000	137681.000
367.000	136668.000
368.000	138974.000
369.000	141475.000
370.000	147402.000
371.000	155111.000
372.000	166205.000
373.000	181747.000
374.000	206261.000
375.000	244911.000
376.000	307780.000
377.000	413466.000
378.000	583420.000
379.000	843338.000
380.000	1217867.000
381.000	1712407.000
382.000	2300942.000
383.000	2930557.000
384.000	3503747.000
385.000	3913556.000
386.000	4088668.000
387.000	3977850.000
388.000	3596608.000
389.000	3035623.000
390.000	2390796.000
391.000	1766087.000
392.000	1224266.000
393.000	809928.000
394.000	518168.000
395.000	328504.000
396.000	215776.000
397.000	154112.000
398.000	122218.000
399.000	107915.000
400.000	102051.000
401.000	100669.000
402.000	101998.000
403.000	103834.000
404.000	106952.000
405.000	108717.000
406.000	111141.000
407.000	111812.000
408.000	113269.000
409.000	113620.000
410.000	113512.000
411.000	112087.000
412.000	111150.000
413.000	110140.000
414.000	109452.000
415.000	109603.000
416.000	109008.000
417.000	110422.000
418.000	110724.000
419.000	111495.000
420.000	113277.000
421.000	113371.000
422.000	114184.000
423.000	115508.000
424.000	117429.000
425.000	118573.000
426.000	120523.000
427.000	122949.000
428.000	124657.000
429.000	127989.000
430.000	131698.000
431.000	136777.000
432.000	144103.000
433.000	153372.000
434.000	164598.000
435.000	179407.000
436.000	196629.000
437.000	215800.000
438.000	232920.000
439.000	249542.000
440.000	261663.000
441.000	268732.000
442.000	272943.000
443.000	273686.000
444.000	270766.000
445.000	267883.000
446.000	263913.000
447.000	258850.000
448.000	257424.000
449.000	255752.000
450.000	255565.000
451.000	258067.000
452.000	266248.000
453.000	275710.000
454.000	293691.000
455.000	312865.000
456.000	333691.000
457.000	352905.000
458.000	366309.000
459.000	368591.000
460.000	360219.000
461.000	344383.000
462.000	318961.000
463.000	291295.000
464.000	265260.000
465.000	243907.000
466.000	230178.000
467.000	222388.000
468.000	220109.000
469.000	225486.000
470.000	230199.000
471.000	235800.000
472.000	239448.000
473.000	238159.000
474.000	234327.000
475.000	228826.000
476.000	220528.000
477.000	213166.000
478.000	207219.000
479.000	200967.000
480.000	197742.000
481.000	197290.000
482.000	198356.000
483.000	200185.000
484.000	201569.000
485.000	204838.000
486.000	206702.000
487.000	208940.000
488.000	210795.000
489.000	212349.000
490.000	213628.000
491.000	213941.000
492.000	214298.000
493.000	215589.000
494.000	218052.000
495.000	219742.000
496.000	222604.000
497.000	228656.000
498.000	232725.000
499.000	238520.000
500.000	245638.000
501.000	253078.000
502.000	262522.000
503.000	271423.000
504.000	280442.000
505.000	288066.000
506.000	295004.000
507.000	301742.000
508.000	306829.000
509.000	311356.000
510.000	314479.000
511.000	318204.000
512.000	320241.000
513.000	322059.000
514.000	325089.000
515.000	326710.000
516.000	329294.000
517.000	332157.000
518.000	335955.000
519.000	340640.000
520.000	346895.000
521.000	353431.000
522.000	362850.000
523.000	374045.000
524.000	384140.000
525.000	397074.000
526.000	406306.000
527.000	415526.000
528.000	419114.000
529.000	417594.000
530.000	409832.000
531.000	396775.000
532.000	382089.000
533.000	366051.000
534.000	349910.000
535.000	335849.000
536.000	326181.000
537.000	320172.000
538.000	317047.000
539.000	316143.000
540.000	315809.000
541.000	320586.000
542.000	322374.000
543.000	324488.000
544.000	326263.000
545.000	324806.000
546.000	321261.000
547.000	316870.000
548.000	310698.000
549.000	305127.000
550.000	297838.000
551.000	292827.000
552.000	287360.000
553.000	284616.000
554.000	281686.000
555.000	278762.000
556.000	276498.000
557.000	276979.000
558.000	274122.000
559.000	275379.000
560.000	274062.000
561.000	273405.000
562.000	274719.000
563.000	274289.000
564.000	275018.000
565.000	276052.000
566.000	277288.000
567.000	278965.000
568.000	279937.000
569.000	282620.000
570.000	285252.000
571.000	287603.000
572.000	290069.000
573.000	293620.000
574.000	294938.000
575.000	297313.000
576.000	299906.000
577.000	300420.000
578.000	302111.000
579.000	301434.000
580.000	301345.000
581.000	301364.000
582.000	301929.000
583.000	304909.000
584.000	305770.000
585.000	307650.000
586.000	310069.000
587.000	312533.000
588.000	314594.000
589.000	318247.000
590.000	320290.000
591.000	323205.000
592.000	326491.000
593.000	328989.000
594.000	331448.000
595.000	332963.000
596.000	333965.000
597.000	335136.000
598.000	336102.000
599.000	336168.000
600.000	335038.000
601.000	335239.000
602.000	333891.000
603.000	333313.000
604.000	333396.000
605.000	334842.000
606.000	333952.000
607.000	335036.000
608.000	334954.000
609.000	337959.000
610.000	339226.000
611.000	343080.000
612.000	346098.000
613.000	350256.000
614.000	352482.000
615.000	354553.000
616.000	356924.000
617.000	357461.000
618.000	356414.000
619.000	356747.000
620.000	355152.000
621.000	352362.000
622.000	349676.000
623.000	347825.000
624.000	344738.000
625.000	344436.000
626.000	343562.000
627.000	343546.000
628.000	344723.000
629.000	344133.000
630.000	344786.000
631.000	345351.000
632.000	346660.000
633.000	348189.000
634.000	349636.000
635.000	349662.000
636.000	351156.000
637.000	350744.000
638.000	351160.000
639.000	351838.000
640.000	352388.000
641.000	353835.000
642.000	354047.000
643.000	356054.000
644.000	359357.000
645.000	363037.000
646.000	367510.000
647.000	372033.000
648.000	376118.000
649.000	378639.000
650.000	382244.000
651.000	382972.000
652.000	382783.000
653.000	380397.000
654.000	378574.000
655.000	374707.000
656.000	370606.000
657.000	368117.000
658.000	364628.000
659.000	363403.000
660.000	360006.000
661.000	360107.000
662.000	359816.000
663.000	358696.000
664.000	358423.000
665.000	359677.000
666.000	360300.000
667.000	361615.000
668.000	362374.000
669.000	363016.000
670.000	365599.000
671.000	365903.000
672.000	367807.000
673.000	367254.000
674.000	369839.000
675.000	369941.000
676.000	372229.000
677.000	372465.000
678.000	373737.000
679.000	375303.000
680.000	377233.000
681.000	378800.000
682.000	380850.000
683.000	382513.000
684.000	386189.000
685.000	386850.000
686.000	389540.000
687.000	393391.000
688.000	398634.000
689.000	403382.000
690.000	409011.000
691.000	414628.000
692.000	421956.000
693.000	430697.000
694.000	440084.000
695.000	450697.000
696.000	458680.000
697.000	464946.000
698.000	470505.000
699.000	472683.000
700.000	472017.000
701.000	467946.000
702.000	460880.000
703.000	450231.000
704.000	440485.000
705.000	431602.000
706.000	423826.000
707.000	416455.000
708.000	409540.000
709.000	405364.000
710.000	402711.000
711.000	401362.000
712.000	400161.000
713.000	399742.000
714.000	400521.000
715.000	400983.000
716.000	400710.000
717.000	402081.000
718.000	403781.000
719.000	405849.000
720.000	409527.000
721.000	411926.000
722.000	415167.000
723.000	419710.000
724.000	423184.000
725.000	428111.000
726.000	432859.000
727.000	437001.000
728.000	442867.000
729.000	446468.000
730.000	450720.000
731.000	452925.000
732.000	454715.000
733.000	454107.000
734.000	454751.000
735.000	451476.000
736.000	448784.000
737.000	443597.000
738.000	438697.000
739.000	436027.000
740.000	430216.000
741.000	424894.000
742.000	422538.000
743.000	419882.000
744.000	417222.000
745.000	416227.000
746.000	414176.000
747.000	413831.000
748.000	413309.000
749.000	413662.000
750.000	414549.000
751.000	415248.000
752.000	414616.000
753.000	415556.000
754.000	415242.000
755.000	417940.000
756.000	420592.000
757.000	421115.000
758.000	425253.000
759.000	432041.000
760.000	440452.000
761.000	450776.000
762.000	468436.000
763.000	492639.000
764.000	522298.000
765.000	559545.000
766.000	603292.000
767.000	649395.000
768.000	698472.000
769.000	742863.000
770.000	785196.000
771.000	813906.000
772.000	830218.000
773.000	829952.000
774.000	815412.000
775.000	786888.000
776.000	744730.000
777.000	698957.000
778.000	649564.000
779.000	600971.000
780.000	556689.000
781.000	519586.000
782.000	488425.000
783.000	465597.000
784.000	448652.000
785.000	437981.000
786.000	430264.000
787.000	423929.000
788.000	423197.000
789.000	420897.000
790.000	420329.000
791.000	419740.000
792.000	419145.000
793.000	420274.000
794.000	420368.000
795.000	419176.000
796.000	419470.000
797.000	419925.000
798.000	420205.000
799.000	420936.000
800.000	420331.000
801.000	420094.000
802.000	422204.000
803.000	423835.000
804.000	425763.000
805.000	427087.000
806.000	429731.000
807.000	432760.000
808.000	436168.000
809.000	439395.000
810.000	443385.000
811.000	449403.000
812.000	452839.000
813.000	457153.000
814.000	460337.000
815.000	462380.000
816.000	461016.000
817.000	462435.000
818.000	461270.000
819.000	458345.000
820.000	454974.000
821.000	450969.000
822.000	446272.000
823.000	442799.000
824.000	439074.000
825.000	438719.000
826.000	436118.000
827.000	434689.000
828.000	435540.000
829.000	436813.000
830.000	435775.000
831.000	435226.000
832.000	436738.000
833.000	437518.000
834.000	438762.000
835.000	440426.000
836.000	440353.000
837.000	440261.000
838.000	442362.000
839.000	444119.000
840.000	446096.000
841.000	448214.000
842.000	450910.000
843.000	451487.000
844.000	455599.000
845.000	457916.000
846.000	461465.000
847.000	466553.000
848.000	470404.000
849.000	475734.000
850.000	482474.000
851.000	492804.000
852.000	504920.000
853.000	516256.000
854.000	529715.000
855.000	545954.000
856.000	563080.000
857.000	579643.000
858.000	597345.000
859.000	615099.000
860.000	627678.000
861.000	638947.000
862.000	648461.000
863.000	653457.000
864.000	652737.000
865.000	653685.000
866.000	649334.000
867.000	643518.000
868.000	637949.000
869.000	633730.000
870.000	630842.000
871.000	631094.000
872.000	633553.000
873.000	641552.000
874.000	654284.000
875.000	668665.000
876.000	687613.000
877.000	709415.000
878.000	734939.000
879.000	764400.000
880.000	796897.000
881.000	833625.000
882.000	874391.000
883.000	916576.000
884.000	966106.000
885.000	1015998.000
886.000	1071480.000
887.000	1126422.000
888.000	1188791.000
889.000	1248013.000
890.000	1312570.000
891.000	1372834.000
892.000	1431612.000
893.000	1486934.000
894.000	1541310.000
895.000	1589700.000
896.000	1628547.000
897.000	1665852.000
898.000	1691522.000
899.000	1710155.000
900.000	1718330.000
901.000	1722089.000
902.000	1710438.000
903.000	1693364.000
904.000	1673004.000
905.000	1638811.000
906.000	1598674.000
907.000	1556033.000
908.000	1506159.000
909.000	1453624.000
910.000	1395207.000
911.000	1336203.000
912.000	1273800.000
913.000	1211534.000
914.000	1153548.000
915.000	1093950.000
916.000	1036653.000
917.000	978903.000
918.000	925175.000
919.000	876964.000
920.000	829667.000
921.000	785602.000
922.000	747277.000
923.000	710706.000
924.000	677692.000
925.000	646669.000
926.000	620588.000
927.000	596311.000
928.000	574762.000
929.000	554245.000
930.000	538318.000
931.000	523582.000
932.000	508422.000
933.000	500202.000
934.000	491705.000
935.000	486239.000
936.000	485589.000
937.000	491154.000
938.000	501941.000
939.000	518498.000
940.000	545189.000
941.000	580839.000
942.000	629716.000
943.000	687660.000
944.000	756634.000
945.000	832701.000
946.000	916584.000
947.000	1002540.000
948.000	1085294.000
949.000	1162583.000
950.000	1226335.000
951.000	1274227.000
952.000	1298682.000
953.000	1300891.000
954.000	1278385.000
955.000	1233142.000
956.000	1161793.000
957.000	1076778.000
958.000	984566.000
959.000	885119.000
960.000	788051.000
961.000	698487.000
962.000	620337.000
963.000	555265.000
964.000	503584.000
965.000	461850.000
966.000	431884.000
967.000	408822.000
968.000	393642.000
969.000	382060.000
970.000	375500.000
971.000	371310.000
972.000	367892.000
973.000	367250.000
974.000	366589.000
975.000	367314.000
976.000	368029.000
977.000	370616.000
978.000	371263.000
979.000	373468.000
980.000	377484.000
981.000	380981.000
982.000	383622.000
983.000	388616.000
984.000	393285.000
985.000	398432.000
986.000	404624.000
987.000	409593.000
988.000	417741.000
989.000	423524.000
990.000	432081.000
991.000	440205.000
992.000	448112.000
993.000	458268.000
994.000	467951.000
995.000	471662.000
996.000	482194.000
997.000	490281.000
998.000	497395.000
999.000	503418.000
1000.000	509431.000
1001.000	514450.000
1002.000	516760.000
1003.000	518306.000
1004.000	518872.000
1005.000	520388.000
1006.000	516983.000
1007.000	513216.000
1008.000	511357.000
1009.000	506365.000
1010.000	500445.000
1011.000	491072.000
1012.000	483479.000
1013.000	472919.000
1014.000	465383.000
1015.000	454544.000
1016.000	444094.000
1017.000	431859.000
1018.000	420785.000
1019.000	408968.000
1020.000	397137.000
1021.000	386445.000
1022.000	374302.000
1023.000	362623.000
1024.000	351708.000
